File: EA_RF_20%.csv
mon1_BertzCT,mon1_LabuteASA,mon1_MolMR,monomer1(wt%),mon2_MolWt,mon2_HeavyAtomMolWt,mon2_TPSA,monomer2(wt%),initiator1(wt%),ini2_NumValenceElectrons,ini2_Ipc,ini2_HeavyAtomCount,initiator2(wt%),Young's modulus(MPa)
265.737,125.512,74.401,80,60.084,60.084,34.14,20,5,84.58,308808,14.36,0,0
265.737,125.512,74.401,80,60.084,60.084,34.14,20,15,84.58,308808,14.36,0,0
265.737,125.512,74.401,95,60.084,60.084,34.14,5,15,83.4,308808,14.14,0,1
265.737,125.512,74.401,95,60.084,60.084,34.14,5,15,83.4,308808,14.14,0,1
265.737,125.512,74.401,95,60.084,60.084,34.14,5,15,83.4,308808,14.14,0,1.5
265.737,125.512,74.401,95,60.084,60.084,34.14,5,15,83.4,308808,14.14,0,2.9
265.737,125.512,74.401,95,60.084,60.084,34.14,5,15,83.4,308808,14.14,0,3
265.737,125.512,74.401,80,50.83123,55.22216,33.726,20,15,84.58,308808,14.36,0,6
265.737,125.512,74.401,80,50.83123,55.22216,33.726,20,15,84.58,308808,14.36,0,7.3
265.737,125.512,74.401,80,50.83123,55.22216,33.726,20,5,84.58,308808,14.36,0,8.5
265.737,125.512,74.401,95,60.084,60.084,34.14,5,15,83.4,308808,14.14,0,8.8
265.737,125.512,74.401,80,50.83123,55.22216,33.726,20,15,84.58,308808,14.36,0,8.9
265.737,125.512,74.401,95,60.084,60.084,34.14,5,15,83.4,308808,14.14,0,9
265.737,125.512,74.401,80,50.83123,55.22216,33.726,20,15,84.58,308808,14.36,0,9.3
265.737,125.512,74.401,80,50.83123,55.22216,33.726,20,15,84.58,308808,14.36,0,9.3
265.737,125.512,74.401,80,50.83123,55.22216,33.726,20,5,84.58,308808,14.36,0,9.3
265.737,125.512,74.401,80,50.83123,55.22216,33.726,20,5,84.58,308808,14.36,0,11.9
265.737,125.512,74.401,80,50.83123,55.22216,33.726,20,5,84.58,308808,14.36,0,12.6
265.737,125.512,74.401,80,60.084,60.084,34.14,20,5,84.58,308808,14.36,0,19
265.737,125.512,74.401,95,60.084,60.084,34.14,5,5,83.4,308808,14.14,0,19.8
265.737,125.512,74.401,95,60.084,60.084,34.14,5,5,83.4,308808,14.14,0,20
265.737,125.512,74.401,80,60.084,60.084,34.14,20,15,84.58,308808,14.36,0,20
265.737,125.512,74.401,80,60.084,60.084,34.14,20,15,84.58,308808,14.36,0,20
265.737,125.512,74.401,80,60.084,60.084,34.14,20,5,84.58,308808,14.36,0,20.6
265.737,125.512,74.401,80,60.084,60.084,34.14,20,15,84.58,308808,14.36,0,20.6
265.737,125.512,74.401,80,60.084,60.084,34.14,20,15,84.58,308808,14.36,0,25
265.737,125.512,74.401,80,60.084,60.084,34.14,20,15,84.58,308808,14.36,0,25.8
265.737,125.512,74.401,40,49.06959,54.2607,32.3742,60,15,88.66,1.48826E+12,20.08,0,30
265.737,125.512,74.401,95,60.084,60.084,34.14,5,5,83.4,308808,14.14,0,32.4
265.737,125.512,74.401,95,60.084,60.084,34.14,5,5,83.4,308808,14.14,0,33
265.737,125.512,74.401,95,60.084,60.084,34.14,5,5,83.4,308808,14.14,0,33
265.737,125.512,74.401,40,49.06959,54.2607,32.3742,60,15,88.66,1.48826E+12,20.08,0,35.8
265.737,125.512,74.401,40,49.06959,54.2607,32.3742,60,15,88.66,1.48826E+12,20.08,0,36
265.737,125.512,74.401,80,50.83123,55.22216,33.726,20,5,84.58,308808,14.36,0,38.5
265.737,125.512,74.401,40,49.06959,54.2607,32.3742,60,15,88.66,1.48826E+12,20.08,0,43
265.737,125.512,74.401,40,49.06959,54.2607,32.3742,60,15,88.66,1.48826E+12,20.08,0,55
265.737,125.512,74.401,80,50.83123,55.22216,33.726,20,5,84.58,308808,14.36,0,70.4
265.737,125.512,74.401,80,60.084,60.084,34.14,20,5,84.58,308808,14.36,0,109.7
265.737,125.512,74.401,80,60.084,60.084,34.14,20,5,84.58,308808,14.36,0,110
265.737,125.512,74.401,95,60.084,60.084,34.14,5,5,83.4,308808,14.14,0,114.8
265.737,125.512,74.401,95,60.084,60.084,34.14,5,5,83.4,308808,14.14,0,115
670.39,167.384,97.6898,100,49.93441,52.66879,32.3256,0,1,48,4.14171,7,1,206.25
670.39,167.384,97.6898,100,60.052,56.02,32.76,1,1,48,4.14171,7,1,537.5
355.703,106.962,62.963,100,60.052,56.02,32.76,1,1,48,4.14171,7,1,550
355.703,106.962,62.963,100,50.3713,52.53992,35.9092,0,1,48,4.14171,7,1,568.75
355.703,106.962,62.963,100,60.052,56.02,32.76,2,1,48,4.14171,7,1,643.75
355.703,106.962,62.963,100,342.297,320.121,189.53,1,1,48,4.14171,7,1,712.5
670.39,167.384,97.6898,100,60.052,56.02,32.76,2,1,48,4.14171,7,1,787.5
355.703,106.962,62.963,100,342.297,320.121,189.53,2,1,48,4.14171,7,1,875
670.39,167.384,97.6898,100,342.297,320.121,189.53,1,1,48,4.14171,7,1,993.75